#Typical Measured Spectrum of Semrock FF01-661/20 Optical Filter	
#For wavelengths between 320 and 1120 nm, values near or below 3e-7 (Optical Density 6.5) are measurement noise limited.
#For wavelengths < 320 nm and > 1120 nm, values near or below 3e-6 (Optical Density 5.5) are measurement noise limited.
#Data format:  Wavelength (nm) <tab> Transmission (0 to 1)
551.0	1.6258e-08
551.2	1.7154e-08
551.4	1.7256e-08
551.6	1.736e-08
551.8	1.7464e-08
552.0	1.7568e-08
552.2	1.7673e-08
552.4	1.7779e-08
552.6	1.7886e-08
552.8	1.7993e-08
553.0	1.81e-08
553.2	1.8209e-08
553.4	1.8318e-08
553.6	1.8427e-08
553.8	1.8538e-08
554.0	1.8649e-08
554.2	1.876e-08
554.4	1.8873e-08
554.6	1.8986e-08
554.8	1.9099e-08
555.0	1.9214e-08
555.2	1.9329e-08
555.4	1.9444e-08
555.6	1.9561e-08
555.8	1.9678e-08
556.0	1.9796e-08
556.2	2.0257e-08
556.4	2.0864e-08
556.6	2.1489e-08
556.8	2.2133e-08
557.0	2.2796e-08
557.2	2.3479e-08
557.4	2.4183e-08
557.6	2.4907e-08
557.8	2.5653e-08
558.0	2.6422e-08
558.2	2.7214e-08
558.4	2.8029e-08
558.6	2.8869e-08
558.8	2.9734e-08
559.0	3.0625e-08
559.2	3.1542e-08
559.4	3.2488e-08
559.6	3.3461e-08
559.8	3.4464e-08
560.0	3.5496e-08
560.2	3.656e-08
560.4	3.7655e-08
560.6	3.8783e-08
560.8	3.9945e-08
561.0	4.105e-08
561.2	4.1876e-08
561.4	4.272e-08
561.6	4.358e-08
561.8	4.4457e-08
562.0	4.5352e-08
562.2	4.6266e-08
562.4	4.7197e-08
562.6	4.8148e-08
562.8	4.9117e-08
563.0	5.0106e-08
563.2	5.1115e-08
563.4	5.2144e-08
563.6	5.3194e-08
563.8	5.4265e-08
564.0	5.5358e-08
564.2	5.6473e-08
564.4	5.761e-08
564.6	5.877e-08
564.8	5.9953e-08
565.0	6.1161e-08
565.2	6.2392e-08
565.4	6.3649e-08
565.6	6.493e-08
565.8	6.6238e-08
566.0	6.6407e-08
566.2	6.6183e-08
566.4	6.5959e-08
566.6	6.5736e-08
566.8	6.5514e-08
567.0	6.5293e-08
567.2	6.5072e-08
567.4	6.4852e-08
567.6	6.4633e-08
567.8	6.4414e-08
568.0	6.4197e-08
568.2	6.398e-08
568.4	6.3763e-08
568.6	6.3548e-08
568.8	6.3333e-08
569.0	6.3119e-08
569.2	6.2906e-08
569.4	6.2693e-08
569.6	6.2481e-08
569.8	6.227e-08
570.0	6.2059e-08
570.2	6.185e-08
570.4	6.1641e-08
570.6	6.1432e-08
570.8	6.1418e-08
571.0	6.2038e-08
571.2	6.2664e-08
571.4	6.3296e-08
571.6	6.3934e-08
571.8	6.4579e-08
572.0	6.5231e-08
572.2	6.5889e-08
572.4	6.6554e-08
572.6	6.7225e-08
572.8	6.7903e-08
573.0	6.8588e-08
573.2	6.928e-08
573.4	6.9979e-08
573.6	7.0685e-08
573.8	7.1398e-08
574.0	7.2119e-08
574.2	7.2846e-08
574.4	7.3581e-08
574.6	7.4323e-08
574.8	7.5073e-08
575.0	7.5831e-08
575.2	7.6596e-08
575.4	7.7368e-08
575.6	7.8149e-08
575.8	7.8101e-08
576.0	7.773e-08
576.2	7.7361e-08
576.4	7.6994e-08
576.6	7.6629e-08
576.8	7.6265e-08
577.0	7.5903e-08
577.2	7.5543e-08
577.4	7.5184e-08
577.6	7.4827e-08
577.8	7.4472e-08
578.0	7.4119e-08
578.2	7.3767e-08
578.4	7.3417e-08
578.6	7.3068e-08
578.8	7.2722e-08
579.0	7.2377e-08
579.2	7.2033e-08
579.4	7.1691e-08
579.6	7.1351e-08
579.8	7.1012e-08
580.0	7.0675e-08
580.2	7.034e-08
580.4	7.0006e-08
580.6	6.9677e-08
580.8	6.9359e-08
581.0	6.9043e-08
581.2	6.8728e-08
581.4	6.8414e-08
581.6	6.8102e-08
581.8	6.7792e-08
582.0	6.7482e-08
582.2	6.7175e-08
582.4	6.6868e-08
582.6	6.6563e-08
582.8	6.626e-08
583.0	6.5958e-08
583.2	6.5657e-08
583.4	6.5357e-08
583.6	6.5059e-08
583.8	6.4763e-08
584.0	6.4467e-08
584.2	6.4173e-08
584.4	6.388e-08
584.6	6.3589e-08
584.8	6.3299e-08
585.0	6.301e-08
585.2	6.2723e-08
585.4	6.2437e-08
585.6	6.2329e-08
585.8	6.2288e-08
586.0	6.2248e-08
586.2	6.2207e-08
586.4	6.2167e-08
586.6	6.2126e-08
586.8	6.2086e-08
587.0	6.2045e-08
587.2	6.2005e-08
587.4	6.1964e-08
587.6	6.1924e-08
587.8	6.1883e-08
588.0	6.1843e-08
588.2	6.1803e-08
588.4	6.1762e-08
588.6	6.1722e-08
588.8	6.1682e-08
589.0	6.1642e-08
589.2	6.1601e-08
589.4	6.1561e-08
589.6	6.1521e-08
589.8	6.1481e-08
590.0	6.1441e-08
590.2	6.1401e-08
590.4	6.1309e-08
590.6	6.106e-08
590.8	6.0812e-08
591.0	6.0566e-08
591.2	6.032e-08
591.4	6.0075e-08
591.6	5.9831e-08
591.8	5.9588e-08
592.0	5.9346e-08
592.2	5.9105e-08
592.4	5.8865e-08
592.6	5.8626e-08
592.8	5.8388e-08
593.0	5.8151e-08
593.2	5.7915e-08
593.4	5.768e-08
593.6	5.7445e-08
593.8	5.7212e-08
594.0	5.698e-08
594.2	5.6748e-08
594.4	5.6518e-08
594.6	5.6289e-08
594.8	5.606e-08
595.0	5.5832e-08
595.2	5.5606e-08
595.4	5.5741e-08
595.6	5.599e-08
595.8	5.6241e-08
596.0	5.6493e-08
596.2	5.6746e-08
596.4	5.7001e-08
596.6	5.7256e-08
596.8	5.7513e-08
597.0	5.777e-08
597.2	5.8029e-08
597.4	5.8289e-08
597.6	5.8551e-08
597.8	5.8813e-08
598.0	5.9076e-08
598.2	5.9341e-08
598.4	5.9607e-08
598.6	5.9874e-08
598.8	6.0143e-08
599.0	6.0412e-08
599.2	6.0683e-08
599.4	6.0955e-08
599.6	6.1228e-08
599.8	6.1502e-08
600.0	6.1778e-08
600.2	6.2013e-08
600.4	6.2131e-08
600.6	6.2248e-08
600.8	6.2366e-08
601.0	6.2484e-08
601.2	6.2603e-08
601.4	6.2721e-08
601.6	6.284e-08
601.8	6.2959e-08
602.0	6.3078e-08
602.2	6.3198e-08
602.4	6.3318e-08
602.6	6.3438e-08
602.8	6.3558e-08
603.0	6.3678e-08
603.2	6.3799e-08
603.4	6.392e-08
603.6	6.4041e-08
603.8	6.4162e-08
604.0	6.4284e-08
604.2	6.4405e-08
604.4	6.4527e-08
604.6	6.465e-08
604.8	6.4772e-08
605.0	6.4895e-08
605.2	6.5004e-08
605.4	6.511e-08
605.6	6.5215e-08
605.8	6.5321e-08
606.0	6.5427e-08
606.2	6.5533e-08
606.4	6.5639e-08
606.6	6.5746e-08
606.8	6.5852e-08
607.0	6.5959e-08
607.2	6.6066e-08
607.4	6.6173e-08
607.6	6.6281e-08
607.8	6.6388e-08
608.0	6.6496e-08
608.2	6.6604e-08
608.4	6.6712e-08
608.6	6.682e-08
608.8	6.6928e-08
609.0	6.7037e-08
609.2	6.7145e-08
609.4	6.7254e-08
609.6	6.7363e-08
609.8	6.7472e-08
610.0	6.7485e-08
610.2	6.7192e-08
610.4	6.6901e-08
610.6	6.6611e-08
610.8	6.6322e-08
611.0	6.6034e-08
611.2	6.5748e-08
611.4	6.5463e-08
611.6	6.5179e-08
611.8	6.4896e-08
612.0	6.4614e-08
612.2	6.4334e-08
612.4	6.4055e-08
612.6	6.3777e-08
612.8	6.3501e-08
613.0	6.3225e-08
613.2	6.2951e-08
613.4	6.2678e-08
613.6	6.2406e-08
613.8	6.2136e-08
614.0	6.1866e-08
614.2	6.1598e-08
614.4	6.133e-08
614.6	6.1064e-08
614.8	6.08e-08
615.0	6.1291e-08
615.2	6.2078e-08
615.4	6.2875e-08
615.6	6.3682e-08
615.8	6.4499e-08
616.0	6.5327e-08
616.2	6.6165e-08
616.4	6.7014e-08
616.6	6.7875e-08
616.8	6.8746e-08
617.0	6.9628e-08
617.2	7.0522e-08
617.4	7.1427e-08
617.6	7.2344e-08
617.8	7.3272e-08
618.0	7.4213e-08
618.2	7.5165e-08
618.4	7.613e-08
618.6	7.7107e-08
618.8	7.8097e-08
619.0	7.9099e-08
619.2	8.0115e-08
619.4	8.1143e-08
619.6	8.2184e-08
619.8	8.3167e-08
620.0	8.3909e-08
620.2	8.4658e-08
620.4	8.5413e-08
620.6	8.6175e-08
620.8	8.6944e-08
621.0	8.772e-08
621.2	8.8502e-08
621.4	8.9292e-08
621.6	9.0089e-08
621.8	9.0893e-08
622.0	9.1704e-08
622.2	9.2522e-08
622.4	9.3348e-08
622.6	9.418e-08
622.8	9.5021e-08
623.0	9.5869e-08
623.2	9.6724e-08
623.4	9.7587e-08
623.6	9.8458e-08
623.8	9.9336e-08
624.0	1.0022e-07
624.2	1.0112e-07
624.4	1.0202e-07
624.6	1.0293e-07
624.8	1.0379e-07
625.0	1.0464e-07
625.2	1.055e-07
625.4	1.0636e-07
625.6	1.0723e-07
625.8	1.0811e-07
626.0	1.09e-07
626.2	1.0989e-07
626.4	1.1079e-07
626.6	1.1169e-07
626.8	1.1261e-07
627.0	1.1353e-07
627.2	1.1446e-07
627.4	1.154e-07
627.6	1.1634e-07
627.8	1.1729e-07
628.0	1.1825e-07
628.2	1.1922e-07
628.4	1.202e-07
628.6	1.2118e-07
628.8	1.2217e-07
629.0	1.2317e-07
629.2	1.2418e-07
629.4	1.252e-07
629.6	1.2628e-07
629.8	1.2755e-07
630.0	1.2884e-07
630.2	1.3014e-07
630.4	1.3145e-07
630.6	1.3277e-07
630.8	1.3411e-07
631.0	1.3546e-07
631.2	1.3683e-07
631.4	1.3821e-07
631.6	1.396e-07
631.8	1.4101e-07
632.0	1.4243e-07
632.2	1.4386e-07
632.4	1.4531e-07
632.6	1.4678e-07
632.8	1.4826e-07
633.0	1.4975e-07
633.2	1.5126e-07
633.4	1.5278e-07
633.6	1.6527e-07
633.8	1.9199e-07
634.0	2.2303e-07
634.2	2.591e-07
634.4	3.0099e-07
634.6	3.4966e-07
634.8	4.062e-07
635.0	4.7188e-07
635.2	5.4818e-07
635.4	6.3682e-07
635.6	7.3978e-07
635.8	8.594e-07
636.0	9.9836e-07
636.2	1.1598e-06
636.4	1.3473e-06
636.6	1.5652e-06
636.8	1.8183e-06
637.0	2.1121e-06
637.2	2.4348e-06
637.4	2.8069e-06
637.6	3.2358e-06
637.8	3.7303e-06
638.0	4.3003e-06
638.2	4.9574e-06
638.4	5.7149e-06
638.6	6.5882e-06
638.8	7.5949e-06
639.0	8.7555e-06
639.2	1.0093e-05
639.4	1.1636e-05
639.6	9.8889e-06
639.8	3.7622e-06
640.0	1.4313e-06
640.2	5.4454e-07
640.4	2.0717e-07
640.6	7.8817e-08
640.8	2.9986e-08
641.0	1.1408e-08
641.2	6.7963e-09
641.4	6.783e-09
641.6	6.7698e-09
641.8	6.761e-09
642.0	6.7524e-09
642.2	1.3921e-08
642.4	6.3937e-08
642.6	7.2247e-08
642.8	7.7589e-08
643.0	9.5128e-08
643.2	1.3543e-07
643.4	1.9279e-07
643.6	2.5089e-07
643.8	2.5872e-07
644.0	2.0468e-07
644.2	1.6194e-07
644.4	2.7346e-07
644.6	4.7275e-07
644.8	6.8419e-07
645.0	8.1361e-07
645.2	1.2853e-06
645.4	2.0513e-06
645.6	3.3648e-06
645.8	5.6923e-06
646.0	9.6296e-06
646.2	2.1254e-05
646.4	3.7813e-05
646.6	6.4837e-05
646.8	1.2831e-04
647.0	2.7058e-04
647.2	6.0955e-04
647.4	0.00149
647.6	0.00439
647.8	0.01033
648.0	0.02891
648.2	0.09224
648.4	0.29249
648.6	0.65526
648.8	0.89135
649.0	0.92469
649.2	0.92681
649.4	0.9454
649.6	0.96396
649.8	0.97073
650.0	0.96763
650.2	0.96227
650.4	0.95946
650.6	0.9617
650.8	0.96705
651.0	0.97297
651.2	0.97773
651.4	0.98014
651.6	0.97915
651.8	0.97596
652.0	0.97192
652.2	0.96856
652.4	0.96522
652.6	0.96434
652.8	0.96527
653.0	0.96647
653.2	0.96774
653.4	0.96949
653.6	0.97084
653.8	0.97203
654.0	0.97238
654.2	0.97318
654.4	0.97375
654.6	0.97493
654.8	0.97607
655.0	0.97733
655.2	0.97875
655.4	0.98006
655.6	0.98065
655.8	0.98103
656.0	0.981
656.2	0.98048
656.4	0.97957
656.6	0.97927
656.8	0.97871
657.0	0.97832
657.2	0.97867
657.4	0.97892
657.6	0.97949
657.8	0.9804
658.0	0.98146
658.2	0.98175
658.4	0.98196
658.6	0.98194
658.8	0.98129
659.0	0.97989
659.2	0.97868
659.4	0.97763
659.6	0.97687
659.8	0.97648
660.0	0.97675
660.2	0.97712
660.4	0.97854
660.6	0.98074
660.8	0.98287
661.0	0.98446
661.2	0.98672
661.4	0.98813
661.6	0.98955
661.8	0.98994
662.0	0.98959
662.2	0.98917
662.4	0.98765
662.6	0.9859
662.8	0.98487
663.0	0.98384
663.2	0.98348
663.4	0.98281
663.6	0.9832
663.8	0.98345
664.0	0.98414
664.2	0.9852
664.4	0.98576
664.6	0.98634
664.8	0.98577
665.0	0.98515
665.2	0.98394
665.4	0.98132
665.6	0.97806
665.8	0.97471
666.0	0.97083
666.2	0.96723
666.4	0.96374
666.6	0.9613
666.8	0.95956
667.0	0.95902
667.2	0.95967
667.4	0.96108
667.6	0.96343
667.8	0.96632
668.0	0.96925
668.2	0.97206
668.4	0.97429
668.6	0.97582
668.8	0.9761
669.0	0.97493
669.2	0.97215
669.4	0.96835
669.6	0.96417
669.8	0.95945
670.0	0.95502
670.2	0.95198
670.4	0.94915
670.6	0.94816
670.8	0.94877
671.0	0.95056
671.2	0.95317
671.4	0.95672
671.6	0.96025
671.8	0.96297
672.0	0.96549
672.2	0.96685
672.4	0.96685
672.6	0.96691
672.8	0.96626
673.0	0.9655
673.2	0.96544
673.4	0.96577
673.6	0.96532
673.8	0.96276
674.0	0.95292
674.2	0.92546
674.4	0.86358
674.6	0.74652
674.8	0.57541
675.0	0.38647
675.2	0.23492
675.4	0.133
675.6	0.07332
675.8	0.04057
676.0	0.02295
676.2	0.01238
676.4	0.00708
676.6	0.00417
676.8	0.0025
677.0	0.00155
677.2	9.7701e-04
677.4	5.8699e-04
677.6	3.487e-04
677.8	2.2589e-04
678.0	1.4723e-04
678.2	9.831e-05
678.4	6.7058e-05
678.6	4.5072e-05
678.8	3.1269e-05
679.0	2.1891e-05
679.2	1.5303e-05
679.4	1.0813e-05
679.6	7.7322e-06
679.8	5.5293e-06
680.0	3.8629e-06
680.2	2.7321e-06
680.4	1.9586e-06
680.6	1.4042e-06
680.8	1.061e-06
681.0	8.0193e-07
681.2	6.2064e-07
681.4	4.9162e-07
681.6	3.6842e-07
681.8	2.757e-07
682.0	1.7455e-07
682.2	9.2542e-08
682.4	4.9063e-08
682.6	1.0306e-07
682.8	1.2736e-07
683.0	8.481e-08
683.2	5.6473e-08
683.4	8.5917e-08
683.6	1.3351e-07
683.8	1.1352e-07
684.0	5.0885e-08
684.2	2.3286e-08
684.4	1.0668e-08
684.6	6.9993e-09
684.8	7.0016e-09
685.0	7.0038e-09
685.2	2.5043e-08
685.4	5.6172e-08
685.6	7.4173e-08
685.8	9.7943e-08
686.0	9.2194e-08
686.2	8.6635e-08
686.4	5.3185e-08
686.6	2.1511e-08
686.8	1.3679e-08
687.0	8.8004e-09
687.2	7.0136e-09
687.4	7.0166e-09
687.6	7.0196e-09
687.8	7.0182e-09
688.0	7.0136e-09
688.2	7.0089e-09
688.4	7.0056e-09
688.6	7.004e-09
688.8	7.0025e-09
689.0	5.4859e-09
689.2	4.2765e-09
689.4	3.3336e-09
689.6	2.5987e-09
689.8	2.0258e-09
690.0	1.5792e-09
690.2	1.231e-09
690.4	9.987e-10
690.6	9.9911e-10
690.8	9.9953e-10
691.0	9.9995e-10
691.2	1.0004e-09
691.4	1.0008e-09
691.6	1.0012e-09
691.8	1.0016e-09
692.0	1.002e-09
692.2	1.0025e-09
692.4	1.0029e-09
692.6	1.0033e-09
692.8	1.0037e-09
693.0	1.0041e-09
693.2	1.0046e-09
693.4	1.005e-09
693.6	1.0054e-09
693.8	1.0058e-09
694.0	1.0065e-09
694.2	1.0073e-09
694.4	1.0081e-09
694.6	1.0089e-09
694.8	1.0096e-09
695.0	1.0104e-09
695.2	1.0112e-09
695.4	1.012e-09
695.6	1.0128e-09
695.8	1.0136e-09
696.0	1.0143e-09
696.2	1.0151e-09
696.4	1.0159e-09
696.6	1.0167e-09
696.8	1.0175e-09
697.0	1.0183e-09
697.2	1.0191e-09
697.4	1.0199e-09
697.6	1.0207e-09
697.8	1.0215e-09
698.0	1.0222e-09
698.2	1.023e-09
698.4	1.0238e-09
698.6	1.0246e-09
698.8	1.0253e-09
699.0	1.0253e-09
699.2	1.0254e-09
699.4	1.0254e-09
699.6	1.0255e-09
699.8	1.0255e-09
700.0	1.0256e-09
700.2	1.0257e-09
700.4	1.0257e-09
700.6	1.0258e-09
700.8	1.0258e-09
701.0	1.0259e-09
701.2	1.0259e-09
701.4	1.026e-09
701.6	1.0261e-09
701.8	1.0261e-09
702.0	1.0262e-09
702.2	1.0262e-09
702.4	1.0263e-09
702.6	1.0263e-09
702.8	1.0264e-09
703.0	1.0265e-09
703.2	1.0265e-09
703.4	1.0266e-09
703.6	1.0266e-09
703.8	1.116e-09
704.0	1.2553e-09
704.2	1.412e-09
704.4	1.5882e-09
704.6	1.7863e-09
704.8	2.0092e-09
705.0	2.26e-09
705.2	2.542e-09
705.4	2.8592e-09
705.6	3.216e-09
705.8	3.6173e-09
706.0	4.0687e-09
706.2	4.5764e-09
706.4	5.1475e-09
706.6	5.7898e-09
706.8	6.5123e-09
707.0	7.325e-09
707.2	8.239e-09
707.4	9.2671e-09
707.6	1.0424e-08
707.8	1.1724e-08
708.0	1.3187e-08
708.2	1.4833e-08
708.4	1.6684e-08
708.6	1.831e-08
708.8	1.8465e-08
709.0	1.862e-08
709.2	1.8777e-08
709.4	1.8935e-08
709.6	1.9095e-08
709.8	1.9256e-08
710.0	1.9418e-08
710.2	1.9582e-08
710.4	1.9747e-08
710.6	1.9913e-08
710.8	2.0081e-08
711.0	2.025e-08
711.2	2.0421e-08
711.4	2.0593e-08
711.6	2.0767e-08
711.8	2.0942e-08
712.0	2.1118e-08
712.2	2.1296e-08
712.4	2.1476e-08
712.6	2.1656e-08
712.8	2.1839e-08
713.0	2.2023e-08
713.2	2.2209e-08
713.4	2.2396e-08
713.6	2.1875e-08
713.8	2.1122e-08
714.0	2.0395e-08
714.2	1.9693e-08
714.4	1.9015e-08
714.6	1.836e-08
714.8	1.7728e-08
715.0	1.7117e-08
715.2	1.6528e-08
715.4	1.5959e-08
715.6	1.541e-08
715.8	1.4879e-08
716.0	1.4367e-08
716.2	1.3872e-08
716.4	1.3395e-08
716.6	1.2933e-08
716.8	1.2488e-08
717.0	1.2058e-08
717.2	1.1643e-08
717.4	1.1242e-08
717.6	1.0855e-08
717.8	1.0481e-08
718.0	1.0121e-08
718.2	9.7722e-09
718.4	9.4635e-09
718.6	9.2501e-09
718.8	9.0416e-09
719.0	8.8378e-09
719.2	8.6385e-09
719.4	8.4438e-09
719.6	8.2534e-09
719.8	8.0674e-09
720.0	7.8855e-09
720.2	7.7077e-09
720.4	7.534e-09
720.6	7.3641e-09
720.8	7.1981e-09
721.0	7.0358e-09
721.2	6.8772e-09
721.4	6.7222e-09
721.6	6.5707e-09
721.8	6.4225e-09
722.0	6.2777e-09
722.2	6.1362e-09
722.4	5.9979e-09
722.6	5.8627e-09
722.8	5.7305e-09
723.0	5.6013e-09
723.2	5.475e-09
723.4	5.6678e-09
723.6	5.9839e-09
723.8	6.3175e-09
724.0	6.6698e-09
724.2	7.0417e-09
724.4	7.4344e-09
724.6	7.8489e-09
724.8	8.2866e-09
725.0	8.7486e-09
725.2	9.2364e-09
725.4	9.7515e-09
725.6	1.0295e-08
725.8	1.0869e-08
726.0	1.1475e-08
726.2	1.2115e-08
726.4	1.2791e-08
726.6	1.3504e-08
726.8	1.4257e-08
727.0	1.5052e-08
727.2	1.5891e-08
727.4	1.6777e-08
727.6	1.7713e-08
727.8	1.87e-08
728.0	1.9743e-08
728.2	2.0714e-08
728.4	2.1307e-08
728.6	2.1918e-08
728.8	2.2545e-08
729.0	2.3191e-08
729.2	2.3855e-08
729.4	2.4538e-08
729.6	2.5241e-08
729.8	2.5964e-08
730.0	2.6708e-08
730.2	2.7472e-08
730.4	2.8259e-08
730.6	2.9068e-08
730.8	2.9901e-08
731.0	3.0757e-08
731.2	3.1638e-08
731.4	3.2544e-08
731.6	3.3476e-08
731.8	3.4435e-08
732.0	3.5421e-08
732.2	3.6436e-08
732.4	3.7479e-08
732.6	3.8552e-08
732.8	3.9656e-08
733.0	4.0792e-08
733.2	3.969e-08
733.4	3.7869e-08
733.6	3.6133e-08
733.8	3.4475e-08
734.0	3.2894e-08
734.2	3.1386e-08
734.4	2.9946e-08
734.6	2.8573e-08
734.8	2.7263e-08
735.0	2.6012e-08
735.2	2.4819e-08
735.4	2.3681e-08
735.6	2.2595e-08
735.8	2.1559e-08
736.0	2.057e-08
736.2	1.9627e-08
736.4	1.8726e-08
736.6	1.7868e-08
736.8	1.7048e-08
737.0	1.6266e-08
737.2	1.552e-08
737.4	1.4809e-08
737.6	1.4129e-08
737.8	1.3481e-08
738.0	1.3142e-08
738.2	1.3792e-08
738.4	1.4474e-08
738.6	1.519e-08
738.8	1.5942e-08
739.0	1.6731e-08
739.2	1.7559e-08
739.4	1.8427e-08
739.6	1.9339e-08
739.8	2.0296e-08
740.0	2.13e-08
740.2	2.2354e-08
740.4	2.346e-08
740.6	2.4621e-08
740.8	2.5839e-08
741.0	2.7118e-08
741.2	2.8459e-08
741.4	2.9867e-08
741.6	3.1345e-08
741.8	3.2896e-08
742.0	3.4524e-08
742.2	3.6232e-08
742.4	3.8025e-08
742.6	3.9906e-08
742.8	4.1881e-08
743.0	4.2216e-08
743.2	4.1875e-08
743.4	4.1537e-08
743.6	4.1202e-08
743.8	4.0869e-08
744.0	4.0539e-08
744.2	4.0212e-08
744.4	3.9887e-08
744.6	3.9566e-08
744.8	3.9246e-08
745.0	3.8929e-08
745.2	3.8615e-08
745.4	3.8304e-08
745.6	3.7994e-08
745.8	3.7688e-08
746.0	3.7384e-08
746.2	3.7082e-08
746.4	3.6783e-08
746.6	3.6486e-08
746.8	3.6191e-08
747.0	3.5899e-08
747.2	3.5609e-08
747.4	3.5322e-08
747.6	3.5037e-08
747.8	3.4932e-08
748.0	3.5412e-08
748.2	3.5898e-08
748.4	3.6391e-08
748.6	3.6891e-08
748.8	3.7398e-08
749.0	3.7912e-08
749.2	3.8433e-08
749.4	3.896e-08
749.6	3.9496e-08
749.8	4.0038e-08
750.0	4.0588e-08
750.2	4.1146e-08
750.4	4.1711e-08
750.6	4.2284e-08
750.8	4.2865e-08
751.0	4.3453e-08
751.2	4.405e-08
751.4	4.4655e-08
751.6	4.5269e-08
751.8	4.5891e-08
752.0	4.6521e-08
752.2	4.716e-08
752.4	4.7808e-08
752.6	4.8464e-08
752.8	4.8852e-08
753.0	4.9152e-08
753.2	4.9455e-08
753.4	4.9759e-08
753.6	5.0064e-08
753.8	5.0372e-08
754.0	5.0682e-08
754.2	5.0993e-08
754.4	5.1307e-08
754.6	5.1622e-08
754.8	5.1939e-08
755.0	5.2258e-08
755.2	5.258e-08
755.4	5.2903e-08
755.6	5.3228e-08
755.8	5.3555e-08
756.0	5.3884e-08
756.2	5.4215e-08
756.4	5.4549e-08
756.6	5.4884e-08
756.8	5.5221e-08
757.0	5.5561e-08
757.2	5.5902e-08
757.4	5.6246e-08
757.6	5.5379e-08
757.8	5.0912e-08
758.0	4.6805e-08
758.2	4.303e-08
758.4	3.9559e-08
758.6	3.6368e-08
758.8	3.3434e-08
759.0	3.0738e-08
759.2	2.8258e-08
759.4	2.5979e-08
759.6	2.3883e-08
759.8	2.1957e-08
760.0	2.0186e-08
760.2	1.8557e-08
760.4	1.7061e-08
760.6	1.5684e-08
760.8	1.4419e-08
761.0	1.3256e-08
761.2	1.2187e-08
761.4	1.1204e-08
761.6	1.03e-08
761.8	9.4693e-09
762.0	8.7054e-09
762.2	8.0032e-09
762.4	7.3577e-09
762.6	6.8646e-09
762.8	6.4395e-09
763.0	6.0408e-09
763.2	5.6668e-09
763.4	5.3159e-09
763.6	4.9867e-09
763.8	4.678e-09
764.0	4.3883e-09
764.2	4.1166e-09
764.4	3.8617e-09
764.6	3.6226e-09
764.8	3.3983e-09
765.0	3.1879e-09
765.2	2.9905e-09
765.4	2.8053e-09
765.6	2.6316e-09
765.8	2.4687e-09
766.0	2.3158e-09
766.2	2.1724e-09
766.4	2.0379e-09
766.6	1.9117e-09
766.8	1.7934e-09
767.0	1.6823e-09
767.2	1.5782e-09
767.4	1.503e-09
767.6	1.5059e-09
767.8	1.5087e-09
768.0	1.5116e-09
768.2	1.5145e-09
768.4	1.5173e-09
768.6	1.5202e-09
768.8	1.5231e-09
769.0	1.526e-09
769.2	1.5289e-09
769.4	1.5318e-09
769.6	1.5347e-09
769.8	1.5376e-09
770.0	1.5405e-09
770.2	1.5434e-09
770.4	1.5464e-09
770.6	1.5493e-09
770.8	1.5522e-09
771.0	1.5552e-09
771.2	1.5581e-09
771.4	1.5611e-09
771.6	1.564e-09
771.8	1.567e-09
772.0	1.57e-09
772.2	1.5729e-09
772.4	1.5761e-09
772.6	1.5792e-09
772.8	1.5824e-09
773.0	1.5855e-09
773.2	1.5887e-09
773.4	1.5919e-09
773.6	1.595e-09
773.8	1.5982e-09
774.0	1.6014e-09
774.2	1.6046e-09
774.4	1.6078e-09
774.6	1.6111e-09
774.8	1.6143e-09
775.0	1.6175e-09
775.2	1.6207e-09
775.4	1.624e-09
775.6	1.6272e-09
775.8	1.6305e-09
776.0	1.6337e-09
776.2	1.637e-09
776.4	1.6403e-09
776.6	1.6435e-09
776.8	1.6468e-09
777.0	1.6501e-09
777.2	1.6821e-09
777.4	1.8134e-09
777.6	1.955e-09
777.8	2.1076e-09
778.0	2.2722e-09
778.2	2.4496e-09
778.4	2.6408e-09
778.6	2.847e-09
778.8	3.0692e-09
779.0	3.3088e-09
779.2	3.5672e-09
779.4	3.8457e-09
779.6	4.1459e-09
779.8	4.4696e-09
780.0	4.8185e-09
780.2	5.1947e-09
780.4	5.6002e-09
780.6	6.0374e-09
780.8	6.5088e-09
781.0	7.0169e-09
781.2	7.5647e-09
781.4	8.1553e-09
781.6	8.792e-09
781.8	9.4784e-09
782.0	1.0218e-08
782.2	1.0796e-08
782.4	1.1328e-08
782.6	1.1886e-08
782.8	1.2471e-08
783.0	1.3086e-08
783.2	1.373e-08
783.4	1.4407e-08
783.6	1.5116e-08
783.8	1.5861e-08
784.0	1.6642e-08
784.2	1.7462e-08
784.4	1.8322e-08
784.6	1.9225e-08
784.8	2.0172e-08
785.0	2.1165e-08
785.2	2.2208e-08
785.4	2.3302e-08
785.6	2.445e-08
785.8	2.5654e-08
786.0	2.6918e-08
786.2	2.4647e-08
786.4	2.1567e-08
786.6	1.8871e-08
786.8	1.6513e-08
787.0	1.4449e-08
787.2	1.2643e-08
787.4	1.1063e-08
787.6	9.6802e-09
787.8	8.4703e-09
788.0	7.4117e-09
788.2	6.4853e-09
788.4	5.6748e-09
788.6	4.9655e-09
788.8	4.3449e-09
789.0	3.8019e-09
789.2	3.3267e-09
789.4	2.9109e-09
789.6	2.5471e-09
789.8	2.2288e-09
790.0	1.9502e-09
790.2	1.8892e-09
790.4	1.8933e-09
790.6	1.8974e-09
790.8	1.9015e-09
791.0	1.9056e-09
791.2	1.9098e-09
791.4	1.9139e-09
791.6	1.918e-09
791.8	1.9222e-09
792.0	1.9263e-09
792.2	1.9305e-09
792.4	1.9347e-09
792.6	1.9389e-09
792.8	1.943e-09
793.0	1.9472e-09
793.2	1.9515e-09
793.4	1.9557e-09
793.6	1.9122e-09
793.8	1.8141e-09
794.0	1.7211e-09
794.2	1.6328e-09
794.4	1.549e-09
794.6	1.4696e-09
794.8	1.3942e-09
795.0	1.3227e-09
795.2	1.2549e-09
795.4	1.1905e-09
795.6	1.1295e-09
795.8	1.0715e-09
796.0	1.0166e-09
796.2	9.6445e-10
796.4	9.1499e-10
796.6	9.078e-10
796.8	9.0809e-10
797.0	9.0839e-10
797.2	9.0868e-10
797.4	9.0897e-10
797.6	9.0926e-10
797.8	9.0955e-10
798.0	9.0985e-10
798.2	9.1014e-10
798.4	9.1043e-10
798.6	9.1073e-10
798.8	9.1102e-10
799.0	9.1131e-10
799.2	9.116e-10
799.4	9.119e-10
799.6	9.1219e-10
799.8	9.1248e-10
